Freq[Hz]    GD[ms]  Phase[Deg]
5.00000     18.718  -116.404
5.07273     17.995  -116.889
5.14651     17.247  -117.485
5.22137     16.491  -118.229
5.29732     15.736  -118.950
5.37437     14.985  -119.663
5.45254     14.230  -120.273
5.53185     13.450  -120.803
5.61231     12.619  -121.263
5.69394     11.710  -121.662
5.77676     10.713  -122.007
5.86079      9.633  -122.301
5.94604      8.490  -122.548
6.03252      7.314  -122.752
6.12027      6.133  -122.915
6.20929      4.968  -123.039
6.29961      3.835  -123.125
6.39124      2.742  -123.175
6.48420      1.623  -123.190
6.57851      0.545  -123.171
6.67420     -0.504  -123.120
6.77128     -1.510  -123.037
6.86977     -2.463  -122.923
6.96969     -3.361  -122.778
7.07107     -4.204  -122.603
7.17392     -4.999  -122.399
7.27827     -5.751  -122.165
7.38413     -6.464  -121.902
7.49154     -7.142  -121.611
7.60050     -7.788  -121.292
7.71105     -8.404  -120.945
7.82321     -8.993  -120.570
7.93701     -9.555  -120.167
8.05245    -10.093  -119.736
8.16958    -10.607  -119.278
8.28841    -11.099  -118.793
8.40896    -11.568  -118.280
8.53128    -12.016  -117.741
8.65537    -12.441  -117.174
8.78126    -12.844  -116.580
8.90899    -13.223  -115.959
9.03857    -13.577  -115.311
9.17004    -13.903  -114.637
9.30342    -14.196  -113.936
9.43874    -14.449  -113.208
9.57603    -14.648  -112.455
9.71532    -14.776  -111.675
9.85663    -14.814  -110.871
10.0000    -14.761  -110.041
10.1455    -14.643  -109.189
10.2930    -14.522  -108.312
10.4427    -14.482  -107.415
10.5946    -14.588  -106.498
10.7487    -14.855  -105.565
10.9051    -15.252  -104.617
11.0637    -15.732  -103.661
11.2246    -16.296  -102.702
11.3879    -17.028  -101.749
11.5535    -18.088  -100.813
11.7216    -19.672   -99.914
11.8921    -21.921   -99.076
12.0650    -24.857   -98.342
12.2405    -28.349   -97.807
12.4186    -32.140   -97.595
12.5992    -35.920   -97.888
12.7825    -39.415   -98.713
12.9684    -42.459   -99.736
13.1570    -45.022  -100.144
13.3484    -47.183   -98.669
13.5426    -49.071   -94.209
13.7395    -50.808   -86.529
13.9394    -52.462   -76.431
14.1421    -54.030   -65.614
14.3478    -55.435   -55.852
14.5565    -56.531   -48.029
14.7683    -57.127   -42.141
14.9831    -57.029   -37.477
15.2010    -56.098   -33.151
15.4221    -54.305   -28.768
15.6464    -51.754   -24.429
15.8740    -48.654   -20.430
16.1049    -45.259   -16.993
16.3392    -41.800   -14.133
16.5768    -38.428   -11.748
16.8179    -35.202    -9.652
17.0626    -32.115    -7.652
17.3107    -29.141    -5.613
17.5625    -26.288    -3.497
17.8180    -23.610    -1.369
18.0771    -21.193     0.576
18.3401    -19.112     2.084
18.6068    -17.386     2.981
18.8775    -15.967     3.300
19.1521    -14.772     3.332
19.4306    -13.710     3.446
19.7133    -12.731     3.940
20.0000    -11.830     4.949
20.2909    -11.036     6.352
20.5860    -10.380     7.911
20.8855     -9.874     9.442
21.1893     -9.504    10.855
21.4975     -9.228    12.149
21.8102     -8.996    13.347
22.1274     -8.757    14.472
22.4492     -8.477    15.536
22.7758     -8.145    16.547
23.1071     -7.769    17.509
23.4432     -7.369    18.425
23.7841     -6.967    19.297
24.1301     -6.576    20.125
24.4811     -6.196    20.911
24.8372     -5.817    21.655
25.1984     -5.428    22.358
25.5649     -5.026    23.018
25.9368     -4.614    23.636
26.3141     -4.205    24.211
26.6968     -3.812    24.741
27.0851     -3.446    25.226
27.4791     -3.113    25.661
27.8788     -2.814    26.043
28.2843     -2.548    26.366
28.6957     -2.311    26.616
29.1131     -2.097    26.779
29.5365     -1.901    26.840
29.9661     -1.716    26.808
30.4020     -1.542    26.728
30.8442     -1.377    26.669
31.2929     -1.224    26.695
31.7480     -1.084    26.853
32.2098     -0.959    27.145
32.6783     -0.852    27.511
33.1536     -0.761    27.863
33.6359     -0.685    28.154
34.1251     -0.621    28.378
34.6215     -0.565    28.536
35.1250     -0.511    28.653
35.6359     -0.458    28.752
36.1543     -0.403    28.832
36.6802     -0.350    28.870
37.2137     -0.300    28.860
37.7550     -0.259    28.809
38.3041     -0.227    28.720
38.8613     -0.207    28.608
39.4265     -0.195    28.488
40.0000     -0.190    28.370
40.5818     -0.187    28.265
41.1721     -0.184    28.178
41.7710     -0.179    28.105
42.3785     -0.168    28.054
42.9949     -0.149    28.045
43.6203     -0.117    28.086
44.2548     -0.068    28.200
44.8985      0.000    28.416
45.5515      0.087    28.727
46.2141      0.191    29.117
46.8863      0.307    29.554
47.5683      0.431    29.977
48.2602      0.558    30.327
48.9621      0.686    30.540
49.6743      0.815    30.560
50.3968      0.943    30.366
51.1299      1.070    29.937
51.8736      1.196    29.281
52.6281      1.315    28.449
53.3936      1.423    27.513
54.1702      1.514    26.545
54.9581      1.583    25.598
55.7575      1.624    24.708
56.5685      1.634    23.877
57.3914      1.614    23.096
58.2261      1.566    22.363
59.0730      1.493    21.671
59.9323      1.400    21.032
60.8040      1.292    20.469
61.6884      1.175    20.010
62.5857      1.054    19.681
63.4960      0.933    19.478
64.4196      0.817    19.394
65.3566      0.708    19.406
66.3073      0.611    19.481
67.2717      0.529    19.617
68.2502      0.463    19.812
69.2429      0.414    20.057
70.2501      0.381    20.336
71.2719      0.363    20.593
72.3086      0.358    20.775
73.3603      0.364    20.843
74.4274      0.383    20.753
75.5099      0.416    20.499
76.6083      0.465    20.105
77.7226      0.532    19.609
78.8531      0.613    19.086
80.0000      0.705    18.613
81.1636      0.800    18.255
82.3442      0.890    18.054
83.5419      0.967    17.989
84.7570      1.027    17.965
85.9899      1.068    17.851
87.2406      1.091    17.517
88.5096      1.100    16.871
89.7970      1.098    15.914
91.1031      1.090    14.756
92.4282      1.078    13.538
93.7726      1.062    12.384
95.1366      1.039    11.389
96.5204      1.006    10.568
97.9243      0.959     9.896
99.3486      0.895     9.341
100.794      0.817     8.878
102.260      0.728     8.496
103.747      0.633     8.188
105.256      0.539     7.954
106.787      0.450     7.792
108.340      0.368     7.714
109.916      0.291     7.732
111.515      0.220     7.862
113.137      0.152     8.103
114.783      0.089     8.415
116.452      0.032     8.718
118.146     -0.014     8.925
119.865     -0.046     8.979
121.608     -0.062     8.924
123.377     -0.060     8.855
125.171     -0.043     8.867
126.992     -0.013     9.039
128.839      0.025     9.377
130.713      0.068     9.832
132.615      0.113    10.309
134.543      0.156    10.674
136.500      0.197    10.842
138.486      0.237    10.760
140.500      0.278    10.409
142.544      0.320     9.843
144.617      0.364     9.157
146.721      0.409     8.445
148.855      0.454     7.747
151.020      0.495     7.065
153.217      0.530     6.413
155.445      0.556     5.788
157.706      0.573     5.179
160.000      0.582     4.595
162.327      0.585     4.037
164.688      0.582     3.495
167.084      0.576     2.958
169.514      0.568     2.416
171.980      0.559     1.879
174.481      0.547     1.365
177.019      0.535     0.894
179.594      0.521     0.482
182.206      0.506     0.130
184.856      0.490    -0.189
187.545      0.472    -0.499
190.273      0.453    -0.829
193.041      0.433    -1.203
195.849      0.411    -1.629
198.697      0.387    -2.115
201.587      0.361    -2.652
204.520      0.334    -3.224
207.494      0.305    -3.816
210.512      0.275    -4.392
213.574      0.243    -4.917
216.681      0.208    -5.376
219.833      0.171    -5.748
223.030      0.133    -6.030
226.274      0.093    -6.229
229.565      0.054    -6.350
232.905      0.015    -6.398
236.292     -0.021    -6.372
239.729     -0.054    -6.267
243.216     -0.082    -6.071
246.754     -0.103    -5.767
250.343     -0.117    -5.333
253.984     -0.124    -4.756
257.678     -0.124    -4.050
261.426     -0.117    -3.255
265.229     -0.105    -2.424
269.087     -0.088    -1.614
273.001     -0.069    -0.872
276.972     -0.048    -0.267
281.000     -0.025     0.100
285.088      0.000     0.159
289.234      0.026    -0.113
293.441      0.053    -0.692
297.709      0.080    -1.476
302.040      0.106    -2.333
306.433      0.130    -3.174
310.890      0.150    -3.945
315.412      0.164    -4.620
320.000      0.171    -5.200
324.655      0.170    -5.710
329.377      0.162    -6.168
334.168      0.148    -6.603
339.028      0.131    -7.058
343.959      0.110    -7.521
348.962      0.089    -7.940
354.038      0.068    -8.254
359.188      0.047    -8.387
364.412      0.027    -8.304
369.713      0.009    -8.025
375.090     -0.008    -7.589
380.546     -0.022    -7.062
386.081     -0.032    -6.527
391.697     -0.039    -6.029
397.394     -0.041    -5.573
403.175     -0.039    -5.130
409.039     -0.034    -4.654
414.989     -0.026    -4.126
421.025     -0.015    -3.619
427.149     -0.003    -3.267
433.362      0.011    -3.148
439.665      0.024    -3.312
446.060      0.038    -3.747
452.548      0.051    -4.331
459.131      0.064    -4.989
465.809      0.077    -5.698
472.584      0.089    -6.420
479.458      0.101    -7.119
486.432      0.111    -7.755
493.507      0.120    -8.286
500.686      0.127    -8.668
507.968      0.132    -8.899
515.357      0.134    -8.984
522.853      0.135    -8.919
530.458      0.132    -8.760
538.174      0.127    -8.634
546.002      0.120    -8.692
553.943      0.111    -9.052
562.001      0.102    -9.758
570.175      0.094   -10.735
578.469      0.090   -11.792
586.883      0.089   -12.739
595.419      0.092   -13.437
604.080      0.096   -13.797
612.866      0.101   -13.811
621.780      0.104   -13.486
630.824      0.104   -12.876
640.000      0.102   -12.180
649.309      0.099   -11.625
658.753      0.095   -11.441
668.335      0.091   -11.821
678.056      0.089   -12.691
687.919      0.089   -13.772
697.925      0.089   -14.780
708.077      0.088   -15.505
718.376      0.085   -15.924
728.825      0.078   -16.227
739.426      0.069   -16.676
750.181      0.057   -17.434
761.093      0.044   -18.473
772.163      0.030   -19.602
783.394      0.018   -20.550
794.789      0.007   -21.074
806.349     -0.002   -21.036
818.078     -0.011   -20.442
829.977     -0.020   -19.400
842.050     -0.031   -18.100
854.298     -0.042   -16.781
866.724     -0.053   -15.696
879.330     -0.061   -15.036
892.120     -0.065   -14.822
905.097     -0.063   -14.904
918.262     -0.054   -14.977
931.618     -0.041   -14.669
945.169     -0.024   -13.788
958.917     -0.005   -12.422
972.864      0.014   -10.872
987.015      0.031    -9.557
1001.37      0.047    -8.819
1015.94      0.061    -8.823
1030.71      0.073    -9.582
1045.71      0.086   -10.962
1060.92      0.099   -12.782
1076.35      0.112   -14.891
1092.00      0.125   -17.129
1107.89      0.136   -19.314
1124.00      0.144   -21.297
1140.35      0.150   -22.986
1156.94      0.152   -24.361
1173.77      0.151   -25.468
1190.84      0.148   -26.396
1208.16      0.144   -27.225
1225.73      0.140   -27.980
1243.56      0.135   -28.614
1261.65      0.131   -29.050
1280.00      0.127   -29.235
1298.62      0.123   -29.183
1317.51      0.120   -29.003
1336.67      0.116   -28.886
1356.11      0.114   -29.007
1375.84      0.112   -29.434
1395.85      0.110   -30.157
1416.15      0.109   -31.098
1436.75      0.108   -32.137
1457.65      0.106   -33.231
1478.85      0.103   -34.421
1500.36      0.099   -35.792
1522.19      0.094   -37.429
1544.33      0.089   -39.359
1566.79      0.083   -41.468
1589.58      0.077   -43.526
1612.70      0.071   -45.237
1636.16      0.065   -46.359
1659.95      0.059   -46.762
1684.10      0.053   -46.450
1708.60      0.047   -45.624
1733.45      0.039   -44.552
1758.66      0.031   -43.454
1784.24      0.024   -42.521
1810.19      0.017   -41.850
1836.52      0.011   -41.429
1863.24      0.006   -41.209
1890.34      0.002   -41.120
1917.83     -0.002   -41.118
1945.73     -0.005   -41.212
1974.03     -0.008   -41.472
2002.74     -0.012   -41.985
2031.87     -0.016   -42.823
2061.43     -0.020   -43.949
2091.41     -0.023   -45.161
2121.83     -0.026   -46.151
2152.69     -0.029   -46.584
2184.01     -0.032   -46.260
2215.77     -0.034   -45.238
2248.00     -0.037   -43.707
2280.70     -0.041   -41.923
2313.87     -0.045   -40.131
2347.53     -0.049   -38.481
2381.68     -0.054   -37.083
2416.32     -0.057   -36.018
2451.46     -0.058   -35.296
2487.12     -0.058   -34.856
2523.30     -0.056   -34.550
2560.00     -0.052   -34.152
2597.24     -0.046   -33.466
2635.01     -0.039   -32.423
2673.34     -0.032   -31.076
2712.23     -0.025   -29.550
2751.68     -0.017   -28.035
2791.70     -0.010   -26.752
2832.31     -0.002   -25.915
2873.50      0.006   -25.709
2915.30      0.014   -26.216
2957.70      0.023   -27.386
3000.72      0.033   -29.050
3044.37      0.044   -30.928
3088.65      0.056   -32.724
3133.58      0.069   -34.256
3179.16      0.082   -35.454
3225.40      0.095   -36.363
3272.31      0.108   -37.087
3319.91      0.120   -37.728
3368.20      0.132   -38.438
3417.19      0.143   -39.395
3466.89      0.152   -40.798
3517.32      0.160   -42.878
3568.48      0.167   -45.829
3620.39      0.173   -49.796
3673.05      0.177   -54.820
3726.47      0.181   -60.752
3780.67      0.183   -67.336
3835.67      0.183   -74.228
3891.46      0.182   -81.038
3948.06      0.179   -87.442
4005.49      0.174   -93.245
4063.75      0.169   -98.351
4122.86      0.162  -102.720
4182.82      0.155  -106.344
4243.66      0.148  -109.208
4305.39      0.140  -111.262
4368.01      0.130  -112.473
4431.55      0.119  -112.907
4496.01      0.107  -112.848
4561.40      0.096  -112.841
4627.75      0.085  -113.659
4695.06      0.077  -115.912
4763.35      0.072  -119.640
4832.64      0.069  -124.055
4902.93      0.068  -127.601
4974.24      0.068  -128.888
5046.60      0.069  -127.364
5120.00      0.069  -123.694
5194.47      0.069  -119.871
5270.03      0.068  -118.131
5346.68      0.068  -119.756
5424.45      0.068  -124.584
5503.35      0.068  -131.169
5583.40      0.070  -137.516
5664.61      0.073  -142.206
5747.01      0.077  -144.989
5830.60      0.082  -146.436
5915.41      0.085  -147.598
6001.45      0.088  -149.373
6088.74      0.089  -151.988
6177.30      0.089  -155.174
6267.15      0.089  -158.384
6358.31      0.089  -161.111
6450.80      0.089  -163.206
6544.62      0.089  -164.916
6639.82      0.088  -166.804
6736.40      0.087  -169.595
6834.38      0.086  -173.741
6933.79      0.084  -179.159
7034.64      0.081   174.695
7136.96      0.080   168.731
7240.77      0.079   163.823
7346.09      0.079   160.473
7452.94      0.079   158.820
7561.35      0.078   158.534
7671.33      0.077   158.879
7782.91      0.074   159.068
7896.12      0.069   158.393
8010.97      0.063   156.314
8127.49      0.057   152.626
8245.71      0.052   147.463
8365.65      0.047   141.284
8487.33      0.043   134.767
8610.78      0.040   128.829
8736.03      0.038   124.457
8863.09      0.034   122.338
8992.01      0.031   122.613
9122.80      0.026   124.680
9255.50      0.021   127.475
9390.12      0.015   129.828
9526.70      0.009   130.824
9665.27      0.004   130.318
9805.86      0.000   129.047
9948.49     -0.004   128.165
10093.2     -0.007   128.406
10240.0     -0.010   129.917
10388.9     -0.012   132.374
10540.1     -0.014   134.802
10693.4     -0.016   136.242
10848.9     -0.018   136.398
11006.7     -0.018   135.610
11166.8     -0.018   134.824
11329.2     -0.018   135.121
11494.0     -0.016   137.083
11661.2     -0.015   140.728
11830.8     -0.013   145.397
12002.9     -0.011   149.856
12177.5     -0.009   153.014
12354.6     -0.007   154.394
12534.3     -0.005   154.209
12716.6     -0.002   153.150
12901.6      0.000   152.092
13089.2      0.003   151.660
13279.6      0.006   151.860
13472.8      0.009   152.154
13668.8      0.011   151.587
13867.6      0.013   149.338
14069.3      0.015   145.261
14273.9      0.016   140.050
14481.5      0.017   135.012
14692.2      0.017   131.203
14905.9      0.018   129.043
15122.7      0.019   128.297
15342.7      0.019   128.149
15565.8      0.019   127.869
15792.2      0.018   127.174
16021.9      0.017   126.148
16255.0      0.016   125.034
16491.4      0.014   123.961
16731.3      0.013   122.958
16974.7      0.012   122.013
17221.6      0.012   121.109
17472.1      0.011   120.238
17726.2      0.010   119.397
17984.0      0.010   118.581
18245.6      0.009   117.790
18511.0      0.008   117.021
18780.2      0.008   116.272
19053.4      0.008   115.543
19330.5      0.007   114.832
19611.7      0.007   114.138
19897.0      0.007   113.461
20186.4      0.007   112.799
20480.0      0.006   112.153
20777.9      0.006   111.520
21080.1      0.006   110.900
21386.7      0.006   110.294
21697.8      0.005   109.700
22013.4      0.005   109.118
22333.6      0.005   108.548
22658.4      0.005   107.989
22988.0      0.005   107.440
23322.4      0.005   106.902
23661.6      0.004   106.374
24005.8      0.004   105.856
24355.0      0.004   105.347
24709.2      0.004   104.847
25068.6      0.004   104.356
25433.2      0.004   103.874
25803.2      0.004   103.400
26178.5      0.003   102.935
26559.3      0.003   102.478
26945.6      0.003   102.028
27337.5      0.003   101.586
27735.2      0.003   101.150
28138.6      0.003   100.722
28547.9      0.003   100.301
28963.1      0.003    99.888
29384.4      0.003    99.481
29811.8      0.003    99.080
30245.4      0.003    98.685
30685.3      0.002    98.297
31131.7      0.002    97.914
31584.5      0.002    97.538
32043.9      0.002    97.167
32510.0      0.002    96.802
32982.8      0.002    96.443
33462.6      0.002    96.089
33949.3      0.002    95.740
34443.1      0.002    95.396
34944.1      0.002    95.057
35452.4      0.002    94.722
35968.0      0.002    94.393
36491.2      0.002    94.067
37022.0      0.002    93.745
37560.5      0.002    93.420
38106.8      0.002    93.125
38661.1      0.002    92.842
39223.4      0.002    92.625
39793.9      0.002    92.456
