Freq[Hz]    GD[ms]  Phase[Deg]
5.00000      0.453   -82.397
5.07273      0.378   -82.402
5.14651      0.312   -82.407
5.22137      0.250   -82.447
5.29732      0.190   -82.529
5.37437      0.146   -82.576
5.45254      0.125   -82.581
5.53185      0.125   -82.587
5.61231      0.140   -82.592
5.69394      0.158   -82.598
5.77676      0.173   -82.603
5.86079      0.182   -82.551
5.94604      0.186   -82.428
6.03252      0.186   -82.364
6.12027      0.181   -82.370
6.20929      0.176   -82.376
6.29961      0.177   -82.382
6.39124      0.188   -82.388
6.48420      0.215   -82.395
6.57851      0.256   -82.446
6.67420      0.304   -82.551
6.77128      0.346   -82.612
6.86977      0.381   -82.619
6.96969      0.412   -82.626
7.07107      0.436   -82.633
7.17392      0.443   -82.653
7.27827      0.427   -82.691
7.38413      0.395   -82.715
7.49154      0.369   -82.722
7.60050      0.351   -82.730
7.71105      0.326   -82.737
7.82321      0.285   -82.740
7.93701      0.233   -82.737
8.05245      0.167   -82.739
8.16958      0.080   -82.747
8.28841     -0.017   -82.756
8.40896     -0.111   -82.764
8.53128     -0.201   -82.793
8.65537     -0.279   -82.848
8.78126     -0.339   -82.882
8.90899     -0.387   -82.891
9.03857     -0.435   -82.900
9.17004     -0.486   -82.909
9.30342     -0.544   -82.811
9.43874     -0.604   -82.585
9.57603     -0.661   -82.464
9.71532     -0.716   -82.474
9.85663     -0.762   -82.455
10.0000     -0.790   -82.403
10.1455     -0.800   -82.379
10.2930     -0.791   -82.389
10.4427     -0.765   -82.312
10.5946     -0.728   -82.128
10.7487     -0.691   -82.032
10.9051     -0.662   -82.043
11.0637     -0.641   -82.029
11.2246     -0.620   -81.984
11.3879     -0.591   -81.964
11.5535     -0.551   -81.975
11.7216     -0.500   -81.979
11.8921     -0.437   -81.974
12.0650     -0.365   -81.977
12.2405     -0.300   -81.989
12.4186     -0.253   -81.938
12.5992     -0.216   -81.811
12.7825     -0.180   -81.747
12.9684     -0.145   -81.760
13.1570     -0.113   -81.776
13.3484     -0.077   -81.796
13.5426     -0.031   -81.813
13.7395      0.018   -81.826
13.9394      0.063   -81.817
14.1421      0.106   -81.779
14.3478      0.151   -81.778
14.5565      0.198   -81.821
14.7683      0.242   -81.852
14.9831      0.281   -81.866
15.2010      0.318   -81.897
15.4221      0.355   -81.948
15.6464      0.391   -81.986
15.8740      0.425   -82.010
16.1049      0.458   -82.030
16.3392      0.483   -82.046
16.5768      0.496   -82.077
16.8179      0.499   -82.127
17.0626      0.493   -82.199
17.3107      0.479   -82.299
17.5625      0.457   -82.393
17.8180      0.429   -82.482
18.0771      0.399   -82.538
18.3401      0.364   -82.556
18.6068      0.324   -82.647
18.8775      0.278   -82.826
19.1521      0.232   -82.921
19.4306      0.187   -82.914
19.7133      0.145   -82.894
20.0000      0.108   -82.857
20.2909      0.076   -82.827
20.5860      0.048   -82.807
20.8855      0.022   -82.751
21.1893     -0.002   -82.651
21.4975     -0.019   -82.554
21.8102     -0.029   -82.461
22.1274     -0.030   -82.407
22.4492     -0.024   -82.401
22.7758     -0.011   -82.397
23.1071      0.009   -82.395
23.4432      0.035   -82.403
23.7841      0.063   -82.425
24.1301      0.088   -82.448
24.4811      0.110   -82.475
24.8372      0.131   -82.518
25.1984      0.148   -82.580
25.5649      0.160   -82.655
25.9368      0.166   -82.743
26.3141      0.168   -82.830
26.6968      0.168   -82.915
27.0851      0.169   -82.978
27.4791      0.169   -83.016
27.8788      0.169   -83.054
28.2843      0.166   -83.092
28.6957      0.160   -83.087
29.1131      0.154   -83.029
29.5365      0.148   -82.965
29.9661      0.143   -82.894
30.4020      0.138   -82.848
30.8442      0.132   -82.834
31.2929      0.126   -82.831
31.7480      0.120   -82.844
32.2098      0.116   -82.868
32.6783      0.114   -82.905
33.1536      0.115   -82.983
33.6359      0.119   -83.114
34.1251      0.127   -83.222
34.6215      0.136   -83.304
35.1250      0.147   -83.366
35.6359      0.157   -83.403
36.1543      0.163   -83.402
36.6802      0.166   -83.353
37.2137      0.165   -83.307
37.7550      0.160   -83.265
38.3041      0.152   -83.261
38.8613      0.142   -83.303
39.4265      0.133   -83.353
40.0000      0.126   -83.414
40.5818      0.124   -83.482
41.1721      0.126   -83.559
41.7710      0.130   -83.613
42.3785      0.135   -83.639
42.9949      0.137   -83.655
43.6203      0.136   -83.660
44.2548      0.134   -83.658
44.8985      0.132   -83.647
45.5515      0.130   -83.667
46.2141      0.128   -83.724
46.8863      0.127   -83.775
47.5683      0.129   -83.819
48.2602      0.131   -83.860
48.9621      0.132   -83.897
49.6743      0.133   -83.920
50.3968      0.134   -83.924
51.1299      0.135   -83.942
51.8736      0.135   -83.978
52.6281      0.135   -84.027
53.3936      0.134   -84.092
54.1702      0.134   -84.146
54.9581      0.133   -84.186
55.7575      0.133   -84.213
56.5685      0.133   -84.224
57.3914      0.134   -84.265
58.2261      0.133   -84.340
59.0730      0.132   -84.400
59.9323      0.131   -84.443
60.8040      0.130   -84.488
61.6884      0.130   -84.538
62.5857      0.130   -84.566
63.4960      0.130   -84.570
64.4196      0.130   -84.589
65.3566      0.129   -84.627
66.3073      0.128   -84.671
67.2717      0.126   -84.724
68.2502      0.125   -84.779
69.2429      0.125   -84.837
70.2501      0.126   -84.889
71.2719      0.128   -84.934
72.3086      0.130   -84.982
73.3603      0.132   -85.033
74.4274      0.133   -85.075
75.5099      0.134   -85.105
76.6083      0.134   -85.145
77.7226      0.134   -85.197
78.8531      0.134   -85.258
80.0000      0.135   -85.329
81.1636      0.136   -85.398
82.3442      0.137   -85.465
83.5419      0.138   -85.532
84.7570      0.139   -85.601
85.9899      0.139   -85.660
87.2406      0.140   -85.709
88.5096      0.140   -85.765
89.7970      0.140   -85.829
91.1031      0.140   -85.896
92.4282      0.140   -85.966
93.7726      0.140   -86.035
95.1366      0.139   -86.101
96.5204      0.139   -86.170
97.9243      0.140   -86.241
99.3486      0.140   -86.315
100.794      0.140   -86.390
102.260      0.140   -86.467
103.747      0.140   -86.546
105.256      0.140   -86.622
106.787      0.140   -86.695
108.340      0.140   -86.769
109.916      0.140   -86.844
111.515      0.140   -86.917
113.137      0.140   -86.987
114.783      0.139   -87.068
116.452      0.139   -87.161
118.146      0.138   -87.259
119.865      0.138   -87.364
121.608      0.138   -87.461
123.377      0.138   -87.548
125.171      0.138   -87.635
126.992      0.138   -87.723
128.839      0.138   -87.808
130.713      0.138   -87.891
132.615      0.138   -87.975
134.543      0.138   -88.061
136.500      0.137   -88.152
138.486      0.136   -88.248
140.500      0.136   -88.347
142.544      0.136   -88.449
144.617      0.135   -88.561
146.721      0.135   -88.683
148.855      0.136   -88.802
151.020      0.136   -88.914
153.217      0.136   -89.021
155.445      0.137   -89.120
157.706      0.137   -89.218
160.000      0.137   -89.313
162.327      0.137   -89.414
164.688      0.137   -89.522
167.084      0.137   -89.639
169.514      0.137   -89.769
171.980      0.137   -89.900
174.481      0.137   -90.030
177.019      0.137   -90.159
179.594      0.137   -90.286
182.206      0.138   -90.415
184.856      0.138   -90.547
187.545      0.138   -90.683
190.273      0.139   -90.821
193.041      0.139   -90.964
195.849      0.139   -91.114
198.697      0.139   -91.254
201.587      0.139   -91.382
204.520      0.139   -91.516
207.494      0.139   -91.657
210.512      0.139   -91.811
213.574      0.139   -91.977
216.681      0.139   -92.145
219.833      0.139   -92.312
223.030      0.139   -92.471
226.274      0.139   -92.622
229.565      0.139   -92.781
232.905      0.139   -92.949
236.292      0.139   -93.121
239.729      0.140   -93.298
243.216      0.140   -93.476
246.754      0.141   -93.653
250.343      0.142   -93.828
253.984      0.142   -94.000
257.678      0.143   -94.179
261.426      0.145   -94.367
265.229      0.146   -94.554
269.087      0.148   -94.738
273.001      0.149   -94.937
276.972      0.151   -95.151
281.000      0.152   -95.356
285.088      0.153   -95.547
289.234      0.152   -95.748
293.441      0.151   -95.959
297.709      0.149   -96.177
302.040      0.146   -96.401
306.433      0.143   -96.847
310.890      0.139   -97.241
315.412      0.134   -97.591
320.000      0.128   -97.913
324.655      0.122   -98.169
329.377      0.115   -98.423
334.168      0.108   -98.676
339.028      0.099   -98.858
343.959      0.090   -99.020
348.962      0.080   -99.177
354.038      0.069   -99.304
359.188      0.059   -99.372
364.412      0.049   -99.443
369.713      0.040   -99.518
375.090      0.032   -99.520
380.546      0.024   -99.517
386.081      0.017   -99.508
391.697      0.011   -99.454
397.394      0.006   -99.370
403.175      0.002   -99.328
409.039      0.000   -99.216
414.989     -0.001   -99.196
421.025     -0.001   -99.098
427.149      0.001   -98.978
433.362      0.004   -98.900
439.665      0.008   -98.860
446.060      0.013   -98.800
452.548      0.020   -98.685
459.131      0.028   -98.728
465.809      0.037   -98.688
472.584      0.047   -98.765
479.458      0.057   -98.814
486.432      0.068   -98.875
493.507      0.080   -99.015
500.686      0.092   -99.234
507.968      0.104   -99.530
515.357      0.116   -99.824
522.853      0.129  -100.189
530.458      0.140  -100.557
538.174      0.152  -101.011
546.002      0.163  -101.535
553.943      0.173  -102.073
562.001      0.182  -102.668
570.175      0.190  -103.257
578.469      0.197  -103.928
586.883      0.202  -104.673
595.419      0.206  -105.440
604.080      0.209  -106.258
612.866      0.211  -107.108
621.780      0.211  -107.948
630.824      0.210  -108.784
640.000      0.208  -109.617
649.309      0.204  -110.446
658.753      0.200  -111.271
668.335      0.194  -112.081
678.056      0.188  -112.835
687.919      0.182  -113.541
697.925      0.176  -114.236
708.077      0.170  -114.850
718.376      0.165  -115.455
728.825      0.160  -115.983
739.426      0.157  -116.434
750.181      0.155  -116.852
761.093      0.154  -117.229
772.163      0.155  -117.550
783.394      0.158  -117.868
794.789      0.163  -118.170
806.349      0.169  -118.535
818.078      0.178  -118.902
829.977      0.189  -119.321
842.050      0.201  -119.852
854.298      0.215  -120.496
866.724      0.231  -121.234
879.330      0.249  -122.126
892.120      0.268  -123.186
905.097      0.288  -124.476
918.262      0.310  -125.857
931.618      0.332  -127.360
945.169      0.356  -129.072
958.917      0.380  -131.010
972.864      0.405  -133.081
987.015      0.431  -135.223
1001.37      0.458  -137.522
1015.94      0.485  -139.953
1030.71      0.512  -142.511
1045.71      0.540  -145.190
1060.92      0.568  -148.076
1076.35      0.597  -151.147
1092.00      0.625  -154.378
1107.89      0.653  -157.868
1124.00      0.681  -161.631
1140.35      0.708  -165.613
1156.94      0.734  -169.855
1173.77      0.758  -174.364
1190.84      0.780  -179.152
1208.16      0.800   175.712
1225.73      0.816   170.263
1243.56      0.829   164.437
1261.65      0.838   158.295
1280.00      0.842   151.707
1298.62      0.842   144.830
1317.51      0.837   137.613
1336.67      0.827   130.228
1356.11      0.814   122.705
1375.84      0.796   115.397
1395.85      0.775   108.149
1416.15      0.750   101.302
1436.75      0.722    94.901
1457.65      0.691    89.007
1478.85      0.657    83.690
1500.36      0.621    78.917
1522.19      0.584    74.646
1544.33      0.545    70.685
1566.79      0.507    67.254
1589.58      0.469    63.973
1612.70      0.431    60.959
1636.16      0.396    58.085
1659.95      0.363    55.414
1684.10      0.331    53.047
1708.60      0.302    50.942
1733.45      0.275    49.099
1758.66      0.250    47.439
1784.24      0.226    45.901
1810.19      0.204    44.400
1836.52      0.184    42.840
1863.24      0.165    41.224
1890.34      0.148    39.583
1917.83      0.133    37.992
1945.73      0.120    36.562
1974.03      0.108    35.412
2002.74      0.097    34.513
2031.87      0.087    33.900
2061.43      0.077    33.539
2091.41      0.069    33.274
2121.83      0.060    33.114
2152.69      0.053    32.836
2184.01      0.047    32.543
2215.77      0.042    32.170
2248.00      0.039    31.841
2280.70      0.036    31.619
2313.87      0.035    31.545
2347.53      0.035    31.630
2381.68      0.035    31.706
2416.32      0.036    31.770
2451.46      0.038    31.627
2487.12      0.041    31.446
2523.30      0.045    31.215
2560.00      0.049    30.872
2597.24      0.054    30.410
2635.01      0.058    29.925
2673.34      0.063    29.261
2712.23      0.067    28.258
2751.68      0.071    27.019
2791.70      0.076    25.498
2832.31      0.080    23.713
2873.50      0.084    21.752
2915.30      0.088    19.757
2957.70      0.092    17.910
3000.72      0.095    16.405
3044.37      0.096    15.195
3088.65      0.097    14.165
3133.58      0.096    13.001
3179.16      0.095    11.463
3225.40      0.092     9.405
3272.31      0.090     6.730
3319.91      0.087     3.814
3368.20      0.084     1.051
3417.19      0.081    -1.162
3466.89      0.078    -2.778
3517.32      0.076    -3.971
3568.48      0.074    -4.988
3620.39      0.071    -5.986
3673.05      0.069    -6.917
3726.47      0.067    -7.383
3780.67      0.065    -7.486
3835.67      0.063    -7.510
3891.46      0.062    -7.654
3948.06      0.062    -8.044
4005.49      0.061    -8.624
4063.75      0.061    -9.305
4122.86      0.061   -10.431
4182.82      0.061   -12.238
4243.66      0.061   -14.442
4305.39      0.061   -16.686
4368.01      0.061   -18.855
4431.55      0.061   -21.117
4496.01      0.061   -23.631
4561.40      0.061   -26.255
4627.75      0.061   -28.645
4695.06      0.061   -30.474
4763.35      0.061   -31.938
4832.64      0.061   -33.213
4902.93      0.061   -34.037
4974.24      0.060   -34.210
5046.60      0.059   -34.013
5120.00      0.058   -34.286
5194.47      0.057   -35.826
5270.03      0.057   -37.667
5346.68      0.057   -39.243
5424.45      0.058   -40.605
5503.35      0.058   -41.743
5583.40      0.059   -42.698
5664.61      0.059   -43.811
5747.01      0.059   -45.611
5830.60      0.058   -48.012
5915.41      0.056   -50.729
6001.45      0.055   -54.329
6088.74      0.054   -58.614
6177.30      0.053   -62.961
6267.15      0.054   -66.737
6358.31      0.054   -69.510
6450.80      0.055   -70.575
6544.62      0.056   -69.826
6639.82      0.056   -68.512
6736.40      0.055   -67.183
6834.38      0.053   -66.283
6933.79      0.051   -66.283
7034.64      0.049   -67.605
7136.96      0.048   -70.247
7240.77      0.047   -74.177
7346.09      0.047   -78.411
7452.94      0.048   -82.275
7561.35      0.050   -85.480
7671.33      0.051   -87.844
7782.91      0.051   -89.383
7896.12      0.051   -90.496
8010.97      0.051   -91.846
8127.49      0.050   -93.694
8245.71      0.049   -96.261
8365.65      0.048   -99.394
8487.33      0.047  -102.572
8610.78      0.046  -105.246
8736.03      0.046  -107.131
8863.09      0.046  -108.310
8992.01      0.046  -109.160
9122.80      0.045  -110.015
9255.50      0.044  -111.249
9390.12      0.043  -113.120
9526.70      0.043  -115.390
9665.27      0.042  -117.765
9805.86      0.042  -120.290
9948.49      0.043  -122.968
10093.2      0.044  -125.905
10240.0      0.045  -128.630
10388.9      0.046  -131.022
10540.1      0.046  -132.686
10693.4      0.047  -133.622
10848.9      0.048  -134.476
11006.7      0.049  -136.326
11166.8      0.050  -140.416
11329.2      0.050  -145.559
11494.0      0.051  -149.842
11661.2      0.052  -152.223
11830.8      0.053  -153.340
12002.9      0.053  -154.869
12177.5      0.054  -158.422
12354.6      0.055  -164.368
12534.3      0.055  -171.248
12716.6      0.055  -176.995
12901.6      0.055   179.178
13089.2      0.055   177.362
13279.6      0.055   176.189
13472.8      0.055   173.510
13668.8      0.056   167.876
13867.6      0.055   160.624
14069.3      0.055   155.795
14273.9      0.054   154.230
14481.5      0.053   153.498
14692.2      0.052   151.049
14905.9      0.051   145.839
15122.7      0.050   138.808
15342.7      0.049   132.229
15565.8      0.048   128.587
15792.2      0.047   125.960
16021.9      0.046   121.398
16255.0      0.045   115.706
16491.4      0.044   111.129
16731.3      0.044   108.738
16974.7      0.043   107.091
17221.6      0.042   103.530
17472.1      0.040    99.013
17726.2      0.039    95.751
17984.0      0.038    93.010
18245.6      0.037    89.968
18511.0      0.036    86.717
18780.2      0.036    83.616
19053.4      0.035    80.210
19330.5      0.035    75.781
19611.7      0.034    72.431
19897.0      0.034    71.089
20186.4      0.033    67.404
20480.0      0.033    63.776
20777.9      0.033    60.030
21080.1      0.032    56.284
21386.7      0.032    52.539
21697.8      0.032    48.793
22013.4      0.032    45.047
22333.6      0.031    41.302
22658.4      0.031    37.556
22988.0      0.031    33.810
23322.4      0.031    30.065
23661.6      0.030    26.319
24005.8      0.030    22.574
24355.0      0.030    18.828
24709.2      0.029    15.082
25068.6      0.029    11.337
25433.2      0.028     7.591
25803.2      0.028     3.845
26178.5      0.028     0.100
26559.3      0.027    -3.646
26945.6      0.027    -7.392
27337.5      0.026   -11.137
27735.2      0.026   -14.883
28138.6      0.026   -18.629
28547.9      0.025   -22.374
28963.1      0.025   -26.120
29384.4      0.025   -29.866
29811.8      0.024   -33.611
30245.4      0.024   -37.357
30685.3      0.024   -41.103
31131.7      0.023   -44.848
31584.5      0.023   -48.594
32043.9      0.023   -52.340
32510.0      0.022   -56.085
32982.8      0.022   -59.831
33462.6      0.022   -63.577
33949.3      0.022   -67.322
34443.1      0.021   -71.068
34944.1      0.021   -74.814
35452.4      0.021   -78.559
35968.0      0.021   -82.305
36491.2      0.021   -86.051
37022.0      0.020   -89.796
37560.5      0.020   -93.542
38106.8      0.020   -97.288
38661.1      0.020  -101.033
39223.4      0.020  -104.779
39793.9      0.020  -108.525
